 #specbin	  lambda [nm]	  lampspec	  darkspec	  acidspec	  alkaspec	  absorbacid	  absorbalka
0.000000 	339.320007 	0.000000 	0.000000 	0.000000 	0.000000 	-1.#IND00 	-1.#IND00 	
1.000000 	339.690002 	20.880585 	82.222916 	2.682198 	1.256976 	2.052183 	2.810111 	
2.000000 	340.070007 	21.204958 	83.301041 	2.749527 	1.287545 	2.042806 	2.801497 	
3.000000 	340.450012 	21.391708 	84.438538 	2.747823 	1.247872 	2.052195 	2.841563 	
4.000000 	340.829987 	21.360708 	85.688545 	2.716572 	1.229936 	2.062182 	2.854591 	
5.000000 	341.209991 	21.458874 	87.728127 	2.693464 	1.190352 	2.075310 	2.891889 	
6.000000 	341.589996 	21.008625 	88.903122 	2.691194 	1.259374 	2.054948 	2.814318 	
7.000000 	341.959991 	20.894667 	89.720833 	2.639394 	1.205797 	2.068945 	2.852353 	
8.000000 	342.339996 	20.859667 	90.527084 	2.658144 	1.209330 	2.060189 	2.847751 	
9.000000 	342.720001 	20.921875 	91.228127 	2.696306 	1.177311 	2.048913 	2.877562 	
10.000000 	343.100006 	20.750668 	92.120834 	2.603599 	1.070472 	2.075684 	2.964479 	
11.000000 	343.480011 	20.652292 	92.723961 	2.584565 	1.084737 	2.078269 	2.946489 	
12.000000 	343.859985 	20.580791 	93.073959 	2.560131 	1.104302 	2.084300 	2.925145 	
13.000000 	344.230011 	20.534082 	92.985420 	2.701515 	1.161322 	2.028273 	2.872527 	
14.000000 	344.609985 	20.571251 	92.856247 	2.742045 	1.230163 	2.015191 	2.816748 	
15.000000 	344.989990 	20.555126 	92.846878 	2.726420 	1.203125 	2.020121 	2.838188 	
16.000000 	345.369995 	20.477291 	92.842705 	2.640247 	1.114901 	2.048444 	2.910551 	
17.000000 	345.750000 	20.428541 	92.773956 	2.559564 	1.074954 	2.077096 	2.944655 	
18.000000 	346.130005 	20.369793 	92.667709 	2.424905 	1.110554 	2.128261 	2.909194 	
19.000000 	346.500000 	20.411875 	92.509377 	2.511081 	1.140082 	2.095404 	2.885016 	
20.000000 	346.880005 	20.477001 	92.250000 	2.646024 	1.213045 	2.046244 	2.826169 	
21.000000 	347.260010 	20.523874 	92.403122 	2.624716 	1.137636 	2.056616 	2.892636 	
22.000000 	347.640015 	20.455791 	92.592705 	2.558429 	1.099684 	2.078873 	2.923243 	
23.000000 	348.019989 	20.584002 	94.081253 	2.578978 	1.030707 	2.077121 	2.994269 	
24.000000 	348.390015 	20.357834 	93.460419 	2.777652 	1.303171 	1.991860 	2.748666 	
25.000000 	348.769989 	22.074249 	92.681252 	3.591478 	2.217663 	1.815848 	2.297958 	
26.000000 	349.149994 	22.590834 	92.197914 	4.041290 	2.774911 	1.720980 	2.096926 	
27.000000 	349.529999 	22.882000 	91.931252 	4.129546 	2.924728 	1.712183 	2.057149 	
28.000000 	349.899994 	22.993250 	92.043747 	4.180114 	2.995924 	1.704862 	2.037948 	
29.000000 	350.279999 	22.944332 	92.235420 	4.098106 	2.987409 	1.722546 	2.038664 	
30.000000 	350.660004 	22.869541 	92.111458 	4.160699 	3.006476 	1.704123 	2.029037 	
31.000000 	351.040009 	22.935833 	92.516663 	4.144697 	2.939312 	1.710871 	2.054525 	
32.000000 	351.420013 	22.751917 	92.389587 	4.102462 	2.961504 	1.713062 	2.038952 	
33.000000 	351.790009 	22.865791 	92.223961 	4.146496 	2.932563 	1.707378 	2.053765 	
34.000000 	352.170013 	23.027416 	92.145836 	4.188825 	3.003622 	1.704265 	2.036867 	
35.000000 	352.549988 	23.015709 	92.188538 	4.202937 	2.976676 	1.700394 	2.045370 	
36.000000 	352.929993 	23.145624 	92.703125 	4.192898 	3.038723 	1.708413 	2.030368 	
37.000000 	353.299988 	22.980875 	93.015625 	4.249148 	3.064810 	1.687944 	2.014677 	
38.000000 	353.679993 	22.864540 	92.930206 	4.233995 	3.049683 	1.686441 	2.014550 	
39.000000 	354.059998 	22.887583 	92.666664 	4.283333 	3.074095 	1.675863 	2.007584 	
40.000000 	354.429993 	23.010332 	92.516670 	4.271968 	3.100181 	1.683869 	2.004483 	
41.000000 	354.809998 	23.276667 	93.158333 	4.289394 	3.155254 	1.691306 	1.998382 	
42.000000 	355.190002 	22.824417 	93.070831 	4.227462 	3.046558 	1.686229 	2.013819 	
43.000000 	355.570007 	22.940290 	92.817711 	4.256155 	3.064357 	1.684529 	2.013057 	
44.000000 	355.940002 	23.075918 	92.883331 	4.336553 	3.153624 	1.671710 	1.990237 	
45.000000 	356.320007 	23.048292 	93.261459 	4.356723 	3.102129 	1.665872 	2.005503 	
46.000000 	356.700012 	22.875708 	93.076042 	4.243275 	3.066349 	1.684740 	2.009588 	
47.000000 	357.079987 	23.044624 	92.928123 	4.261080 	3.144701 	1.687910 	1.991714 	
48.000000 	357.450012 	23.104792 	92.905205 	4.280588 	3.167075 	1.685950 	1.987231 	
49.000000 	357.829987 	23.230959 	92.844795 	4.384754 	3.223143 	1.667352 	1.975129 	
50.000000 	358.209991 	23.272125 	92.884377 	4.470739 	3.244430 	1.649703 	1.970317 	
51.000000 	358.579987 	23.255167 	93.183334 	4.478599 	3.262319 	1.647217 	1.964089 	
52.000000 	358.959991 	23.137249 	93.218750 	4.375567 	3.177444 	1.665408 	1.985366 	
53.000000 	359.339996 	23.111458 	93.376038 	4.308617 	3.141893 	1.679711 	1.995503 	
54.000000 	359.709991 	23.092041 	93.248962 	4.283428 	3.132019 	1.684734 	1.997810 	
55.000000 	360.089996 	23.112583 	93.391663 	4.289583 	3.106703 	1.684188 	2.006815 	
56.000000 	360.470001 	23.851501 	95.918747 	4.652273 	3.416034 	1.634491 	1.943367 	
57.000000 	360.850006 	22.410748 	95.212502 	4.384090 	3.220107 	1.631559 	1.940126 	
58.000000 	361.220001 	22.675085 	94.035416 	4.352085 	3.156432 	1.650612 	1.971824 	
59.000000 	361.600006 	23.108707 	93.744789 	4.405777 	3.241622 	1.657293 	1.964136 	
60.000000 	361.980011 	23.265999 	94.356247 	4.419886 	3.298097 	1.660879 	1.953647 	
61.000000 	362.350006 	23.001749 	94.175003 	4.410227 	3.218477 	1.651644 	1.966662 	
62.000000 	362.730011 	23.023085 	93.991669 	4.307765 	3.168116 	1.676078 	1.983360 	
63.000000 	363.109985 	23.111668 	93.927086 	4.309850 	3.204983 	1.679434 	1.975631 	
64.000000 	363.480011 	23.137625 	93.753128 	4.382671 	3.232202 	1.663802 	1.968297 	
65.000000 	363.859985 	23.258917 	93.608330 	4.455303 	3.228623 	1.652593 	1.974633 	
66.000000 	364.239990 	23.424707 	93.707291 	4.592141 	3.395970 	1.629445 	1.931202 	
67.000000 	364.609985 	23.360250 	93.831253 	4.592045 	3.428532 	1.626710 	1.918903 	
68.000000 	364.989990 	23.460293 	94.048958 	4.630020 	3.428216 	1.622748 	1.923270 	
69.000000 	365.359985 	23.344625 	93.921875 	4.541761 	3.378668 	1.637052 	1.932885 	
70.000000 	365.739990 	23.378166 	93.958336 	4.494508 	3.380254 	1.648946 	1.933852 	
71.000000 	366.119995 	23.282917 	94.095833 	4.502462 	3.325362 	1.643095 	1.946141 	
72.000000 	366.489990 	23.291374 	93.965622 	4.460511 	3.291983 	1.652820 	1.956593 	
73.000000 	366.869995 	23.362333 	93.847916 	4.533333 	3.341757 	1.639668 	1.944628 	
74.000000 	367.250000 	23.500168 	94.033333 	4.637123 	3.404710 	1.622913 	1.931848 	
75.000000 	367.619995 	23.503250 	93.906250 	4.694887 	3.470380 	1.610665 	1.912875 	
76.000000 	368.000000 	23.437332 	94.091667 	4.507764 	3.367028 	1.648529 	1.940300 	
77.000000 	368.369995 	23.356792 	94.317711 	4.469792 	3.312182 	1.653546 	1.953280 	
78.000000 	368.750000 	23.423626 	94.346878 	4.551989 	3.375952 	1.638181 	1.937068 	
79.000000 	369.130005 	23.539417 	94.520836 	4.623485 	3.505253 	1.627528 	1.904414 	
80.000000 	369.500000 	23.405916 	94.758331 	4.634849 	3.450362 	1.619385 	1.914510 	
81.000000 	369.880005 	23.273792 	94.436455 	4.588542 	3.357564 	1.623765 	1.936112 	
82.000000 	370.260010 	23.448917 	94.214584 	4.584280 	3.376178 	1.632191 	1.938080 	
83.000000 	370.630005 	23.448416 	94.339584 	4.591665 	3.489763 	1.630560 	1.904969 	
84.000000 	371.010010 	23.446459 	94.369789 	4.607481 	3.485100 	1.627038 	1.906223 	
85.000000 	371.380005 	23.478001 	94.256248 	4.596591 	3.560055 	1.630749 	1.886288 	
86.000000 	371.760010 	23.476126 	94.521873 	4.523580 	3.445516 	1.646680 	1.918910 	
87.000000 	372.130005 	23.402416 	94.445831 	4.573485 	3.492754 	1.632564 	1.902149 	
88.000000 	372.510010 	23.549252 	94.300003 	4.707386 	3.603806 	1.609961 	1.877104 	
89.000000 	372.890015 	23.576916 	94.195831 	4.783712 	3.617753 	1.595051 	1.874415 	
90.000000 	373.260010 	23.737959 	94.376038 	4.837595 	3.628850 	1.590658 	1.878160 	
91.000000 	373.640015 	23.747999 	94.518753 	4.829545 	3.621466 	1.592746 	1.880619 	
92.000000 	374.010010 	23.675833 	94.379166 	4.749243 	3.611051 	1.606469 	1.880456 	
93.000000 	374.390015 	24.002375 	95.403122 	4.909374 	3.732744 	1.587006 	1.861009 	
94.000000 	374.760010 	23.487083 	95.729164 	4.733334 	3.694746 	1.601821 	1.849539 	
95.000000 	375.140015 	23.304251 	95.025002 	4.628977 	3.658152 	1.616300 	1.851678 	
96.000000 	375.519989 	23.630375 	94.621872 	4.669600 	3.593884 	1.621459 	1.883299 	
97.000000 	375.890015 	23.733501 	94.699997 	4.720455 	3.682066 	1.614982 	1.863414 	
98.000000 	376.269989 	23.662624 	94.628128 	4.678125 	3.682201 	1.620999 	1.860386 	
99.000000 	376.640015 	23.758501 	94.500000 	4.743182 	3.673913 	1.611232 	1.866683 	
100.000000 	377.019989 	23.798082 	94.460419 	4.855492 	3.734692 	1.589495 	1.851940 	
101.000000 	377.390015 	23.874041 	94.492706 	4.896497 	3.716531 	1.584272 	1.860001 	
102.000000 	377.769989 	23.990208 	94.426041 	4.921117 	3.883198 	1.584110 	1.820987 	
103.000000 	378.140015 	23.861250 	94.587502 	4.852272 	3.795651 	1.592809 	1.838400 	
104.000000 	378.519989 	23.833668 	94.602081 	4.884280 	3.749003 	1.585077 	1.849609 	
105.000000 	378.890015 	24.023666 	95.033333 	4.916666 	3.844928 	1.586409 	1.832285 	
106.000000 	379.269989 	23.818876 	95.109375 	4.857671 	3.781929 	1.589919 	1.840244 	
107.000000 	379.640015 	23.942875 	95.021873 	4.982670 	3.916712 	1.569705 	1.810418 	
108.000000 	380.019989 	24.044790 	95.230209 	5.047632 	3.947509 	1.560999 	1.806834 	
109.000000 	380.399994 	23.841249 	95.181252 	4.994887 	3.902447 	1.563002 	1.809814 	
110.000000 	380.769989 	23.885084 	94.885414 	4.989015 	3.835235 	1.566016 	1.829023 	
111.000000 	381.149994 	24.318708 	96.051041 	5.149527 	4.026676 	1.552341 	1.798305 	
112.000000 	381.519989 	23.968250 	97.125000 	5.109091 	4.021739 	1.545709 	1.785016 	
113.000000 	381.899994 	23.359041 	96.217712 	4.859565 	3.762726 	1.570035 	1.825840 	
114.000000 	382.269989 	23.740501 	95.187500 	4.939205 	3.891305 	1.569978 	1.808438 	
115.000000 	382.649994 	24.554333 	96.816666 	5.188447 	4.078986 	1.554454 	1.795040 	
116.000000 	383.019989 	23.550499 	96.093750 	4.998862 	3.961142 	1.549937 	1.782615 	
117.000000 	383.390015 	23.881042 	95.355209 	5.127747 	4.038814 	1.538419 	1.777134 	
118.000000 	383.769989 	24.048624 	94.978127 	4.992898 	4.093614 	1.572061 	1.770650 	
119.000000 	384.140015 	24.168417 	95.039581 	5.053030 	4.071830 	1.565058 	1.780954 	
120.000000 	384.519989 	24.424919 	95.795830 	5.214963 	4.204168 	1.544072 	1.759527 	
121.000000 	384.890015 	24.013792 	95.361458 	5.119224 	4.172781 	1.545626 	1.750046 	
122.000000 	385.269989 	24.252625 	94.903122 	5.178694 	4.216441 	1.543972 	1.749533 	
123.000000 	385.640015 	24.352293 	94.892708 	5.112406 	4.289900 	1.560956 	1.736362 	
124.000000 	386.019989 	24.410707 	95.038544 	5.121119 	4.225588 	1.561649 	1.753863 	
125.000000 	386.390015 	24.472000 	95.293747 	5.198296 	4.312772 	1.549199 	1.735949 	
126.000000 	386.769989 	24.429543 	95.048958 	5.302178 	4.444520 	1.527676 	1.704121 	
127.000000 	387.140015 	24.445791 	94.986458 	5.241381 	4.292345 	1.539873 	1.739625 	
128.000000 	387.519989 	24.558500 	94.893753 	5.316478 	4.362772 	1.530247 	1.727950 	
129.000000 	387.890015 	24.655207 	95.069794 	5.322252 	4.450315 	1.533091 	1.712013 	
130.000000 	388.269989 	24.559708 	95.038544 	5.245549 	4.289719 	1.543727 	1.744886 	
131.000000 	388.640015 	24.635250 	95.125000 	5.343750 	4.311957 	1.528251 	1.742787 	
132.000000 	389.010010 	24.694876 	95.140625 	5.417899 	4.386006 	1.516888 	1.728177 	
133.000000 	389.390015 	24.729250 	95.150002 	5.447159 	4.510326 	1.512893 	1.701617 	
134.000000 	389.760010 	24.707666 	95.008331 	5.370644 	4.479711 	1.526166 	1.707555 	
135.000000 	390.140015 	24.851873 	94.815628 	5.513920 	4.516439 	1.505657 	1.705209 	
136.000000 	390.510010 	24.882376 	94.809372 	5.523012 	4.539538 	1.505236 	1.701334 	
137.000000 	390.890015 	24.943041 	94.867706 	5.487404 	4.502943 	1.514140 	1.711864 	
138.000000 	391.260010 	24.942375 	95.015625 	5.556535 	4.650137 	1.501594 	1.679672 	
139.000000 	391.630005 	24.869835 	95.041664 	5.518561 	4.569747 	1.505538 	1.694198 	
140.000000 	392.010010 	24.982248 	95.087502 	5.662500 	4.634782 	1.484300 	1.684576 	
141.000000 	392.380005 	25.047251 	94.981247 	5.614204 	4.722553 	1.495464 	1.668415 	
142.000000 	392.760010 	25.097958 	94.907295 	5.643844 	4.754665 	1.492221 	1.663660 	
143.000000 	393.130005 	25.086084 	94.904167 	5.567992 	4.738769 	1.505279 	1.666536 	
144.000000 	393.500000 	25.168751 	94.900002 	5.611365 	4.740762 	1.500809 	1.669405 	
145.000000 	393.880005 	25.230415 	95.114586 	5.655870 	4.784872 	1.495356 	1.662591 	
146.000000 	394.250000 	25.305832 	95.660416 	5.802651 	4.878169 	1.472720 	1.646265 	
147.000000 	394.630005 	25.044292 	95.523956 	5.665814 	4.837454 	1.486195 	1.644257 	
148.000000 	395.000000 	25.221876 	95.334373 	5.763921 	4.856930 	1.476094 	1.647305 	
149.000000 	395.369995 	25.191334 	95.141663 	5.799811 	4.900725 	1.468675 	1.637117 	
150.000000 	395.750000 	25.412542 	94.980209 	5.842519 	4.945334 	1.470081 	1.636798 	
151.000000 	396.119995 	25.526625 	95.096878 	5.879829 	5.102037 	1.468194 	1.610082 	
152.000000 	396.489990 	25.549751 	95.268753 	5.829546 	5.129619 	1.477688 	1.605596 	
153.000000 	396.869995 	25.569166 	95.495834 	5.902462 	5.149276 	1.466018 	1.602531 	
154.000000 	397.239990 	25.580667 	95.708336 	5.998484 	5.161775 	1.450330 	1.600556 	
155.000000 	397.619995 	25.549835 	95.779167 	5.948675 	5.194204 	1.457462 	1.593088 	
156.000000 	397.989990 	25.862667 	96.314583 	6.125189 	5.433242 	1.440391 	1.560264 	
157.000000 	398.359985 	25.515041 	95.636459 	6.055587 	5.416260 	1.438287 	1.549863 	
158.000000 	398.739990 	25.827168 	95.439583 	6.072349 	5.417481 	1.447681 	1.561796 	
159.000000 	399.109985 	25.717751 	95.256248 	6.125001 	5.356795 	1.434803 	1.568815 	
160.000000 	399.480011 	25.890041 	95.061455 	6.202178 	5.431477 	1.428958 	1.561647 	
161.000000 	399.859985 	26.105043 	95.017708 	6.258428 	5.526857 	1.428200 	1.552509 	
162.000000 	400.230011 	26.244501 	95.206253 	6.352842 	5.481251 	1.418554 	1.566123 	
163.000000 	400.600006 	26.226542 	95.098961 	6.359564 	5.618976 	1.416812 	1.540623 	
164.000000 	400.980011 	26.311666 	95.002083 	6.425189 	5.660417 	1.409786 	1.536515 	
165.000000 	401.350006 	26.452333 	94.985420 	6.492991 	5.805888 	1.404621 	1.516472 	
166.000000 	401.720001 	26.610542 	95.173958 	6.553882 	5.951584 	1.401250 	1.497650 	
167.000000 	402.100006 	26.647667 	95.427086 	6.547917 	5.907156 	1.403555 	1.506537 	
168.000000 	402.470001 	26.792248 	95.987503 	6.671589 	6.053259 	1.390254 	1.487516 	
169.000000 	402.839996 	26.541166 	95.564583 	6.660985 	6.039765 	1.382430 	1.480332 	
170.000000 	403.209991 	26.792707 	95.432297 	6.689298 	6.131838 	1.387621 	1.474635 	
171.000000 	403.589996 	26.989124 	95.215622 	6.789488 	6.345244 	1.380058 	1.447728 	
172.000000 	403.959991 	27.085833 	95.110420 	6.806629 	6.328713 	1.381114 	1.453914 	
173.000000 	404.329987 	27.464209 	95.351044 	6.936458 	6.466892 	1.376092 	1.446188 	
174.000000 	404.709991 	27.312750 	95.337502 	6.946590 	6.440217 	1.369103 	1.444792 	
175.000000 	405.079987 	27.624041 	95.173958 	7.162973 	6.617889 	1.349761 	1.428910 	
176.000000 	405.450012 	27.926790 	95.298958 	7.381155 	6.792346 	1.330656 	1.413790 	
177.000000 	405.829987 	28.162708 	95.588539 	7.607481 	7.101676 	1.308867 	1.377668 	
178.000000 	406.200012 	28.178291 	95.442711 	7.678882 	7.209466 	1.300078 	1.363157 	
179.000000 	406.570007 	28.424000 	95.212502 	7.694887 	7.254892 	1.306678 	1.365558 	
180.000000 	406.940002 	28.895750 	95.118752 	7.830113 	7.481249 	1.305717 	1.351295 	
181.000000 	407.320007 	29.515041 	96.380211 	8.211268 	7.973052 	1.279393 	1.308833 	
182.000000 	407.690002 	29.016459 	96.451042 	8.166003 	7.887002 	1.267884 	1.302647 	
183.000000 	408.059998 	29.124001 	95.668747 	8.239204 	7.865489 	1.262659 	1.309078 	
184.000000 	408.429993 	29.673208 	95.282288 	8.421685 	8.138904 	1.259434 	1.293589 	
185.000000 	408.809998 	30.332792 	95.517708 	8.711268 	8.483378 	1.247612 	1.274121 	
186.000000 	409.179993 	30.497208 	95.313545 	8.932481 	8.741893 	1.227941 	1.249508 	
187.000000 	409.549988 	31.048582 	95.210419 	9.119697 	9.028714 	1.225116 	1.235143 	
188.000000 	409.920013 	31.612457 	95.307289 	9.378503 	9.514447 	1.215131 	1.200740 	
189.000000 	410.299988 	31.937750 	95.224998 	9.627273 	9.715761 	1.199189 	1.190039 	
190.000000 	410.670013 	32.467457 	95.413544 	10.016004 	10.111458 	1.176054 	1.166569 	
191.000000 	411.040009 	33.067875 	95.259377 	10.323012 	10.513452 	1.164187 	1.145907 	
192.000000 	411.410004 	33.642750 	95.087502 	10.653410 	10.938044 	1.149918 	1.123551 	
193.000000 	411.790009 	34.106087 	95.054169 	10.894698 	11.218659 	1.141200 	1.111897 	
194.000000 	412.160004 	34.942585 	94.985413 	11.361743 	11.786323 	1.123454 	1.086766 	
195.000000 	412.529999 	36.010414 	95.295837 	11.926893 	12.538948 	1.105012 	1.054969 	
196.000000 	412.899994 	36.262749 	95.543747 	12.273865 	12.916576 	1.083319 	1.032279 	
197.000000 	413.279999 	37.105251 	95.468750 	12.551705 	13.438859 	1.083902 	1.015608 	
198.000000 	413.649994 	38.234669 	96.120834 	13.192802 	14.185688 	1.064071 	0.991509 	
199.000000 	414.019989 	38.573502 	95.900002 	13.362500 	14.607065 	1.060113 	0.971060 	
200.000000 	414.390015 	39.796165 	96.189583 	13.980301 	15.356068 	1.046121 	0.952260 	
201.000000 	414.760010 	40.934124 	96.040627 	14.609375 	16.180027 	1.030301 	0.928187 	
202.000000 	415.140015 	41.973541 	95.505211 	15.231154 	17.058922 	1.013697 	0.900366 	
203.000000 	415.510010 	43.448376 	95.265625 	15.825852 	17.952852 	1.009929 	0.883825 	
204.000000 	415.880005 	44.786251 	95.137497 	16.590908 	18.885870 	0.993046 	0.863487 	
205.000000 	416.250000 	46.530334 	95.297920 	17.597538 	20.198822 	0.972345 	0.834480 	
206.000000 	416.619995 	47.988667 	95.364586 	18.417803 	21.387049 	0.957647 	0.808179 	
207.000000 	417.000000 	49.298706 	95.219795 	19.163162 	22.385098 	0.944908 	0.789502 	
208.000000 	417.369995 	51.294750 	95.112503 	20.055681 	23.802174 	0.939076 	0.767812 	
209.000000 	417.739990 	53.541416 	95.402084 	21.338259 	25.407156 	0.919954 	0.745425 	
210.000000 	418.109985 	55.238293 	95.230209 	22.316950 	26.790987 	0.906310 	0.723591 	
211.000000 	418.480011 	57.826252 	95.331253 	23.677841 	28.765490 	0.892903 	0.698266 	
212.000000 	418.850006 	60.061127 	95.153122 	24.772446 	30.370789 	0.885631 	0.681881 	
213.000000 	419.230011 	63.251331 	95.079170 	26.446970 	32.818657 	0.871975 	0.656119 	
214.000000 	419.600006 	65.736748 	95.356247 	27.969318 	34.866577 	0.854550 	0.634129 	
215.000000 	419.970001 	67.500832 	95.235413 	28.901516 	36.267845 	0.848246 	0.621208 	
216.000000 	420.339996 	72.250252 	95.306252 	31.201706 	39.591579 	0.839663 	0.601519 	
217.000000 	420.709991 	75.728668 	95.445831 	33.010986 	42.453625 	0.830317 	0.578745 	
218.000000 	421.079987 	77.359543 	95.436455 	34.110703 	44.019520 	0.818853 	0.563831 	
219.000000 	421.450012 	82.423668 	96.564583 	37.000191 	48.124004 	0.800950 	0.538092 	
220.000000 	421.829987 	85.756172 	96.102081 	38.550190 	50.410416 	0.799547 	0.531310 	
221.000000 	422.200012 	90.231415 	95.839584 	40.763824 	54.083244 	0.794582 	0.511853 	
222.000000 	422.570007 	94.366333 	96.154167 	43.239582 	57.528984 	0.780428 	0.494895 	
223.000000 	422.940002 	100.763336 	95.622917 	45.883900 	61.939041 	0.786660 	0.486624 	
224.000000 	423.309998 	105.487663 	95.227081 	48.421211 	65.613678 	0.778656 	0.474810 	
225.000000 	423.679993 	108.408295 	95.561462 	50.680588 	68.555931 	0.760361 	0.458255 	
